RRRRRRRRRRRRRRRRRRRRRRRRRRRRRRRRRRRRRRRRRRRRRRRRRRRRRRRRRRRRRRRRRRRRRRRRRRRRRRRR
  070129       1       0                                                        
ILL TAS data in the new ASCII format follow afte the line VV..V                 
AAAAAAAAAAAAAAAAAAAAAAAAAAAAAAAAAAAAAAAAAAAAAAAAAAAAAAAAAAAAAAAAAAAAAAAAAAAAAAAA
      80                                                                        
IN12  n_biniskos  08-Sep-23 10:57:59                                            
VVVVVVVVVVVVVVVVVVVVVVVVVVVVVVVVVVVVVVVVVVVVVVVVVVVVVVVVVVVVVVVVVVVVVVVVVVVVVVVV
INSTR: IN12
EXPNO: 4-01-1795
USER_: n_biniskos
LOCAL: STEFFENS
FILE_: 070129
DATE_: 08-Sep-23 10:57:59

TITLE: Investigating the spin excitationsin the two dimensional antiferromagnet Na2BaMn(PO4)2
TYPE_: tas
COMND: bs mag 0 dmag -0.1 np 101 ti 1
POSQE: QH=   0.3330, QK=   0.3330, QL=   0.1801, EN=   0.0011, UN=meV
CURVE: MONO= auto, ANA= auto
STEPS: MagneticField=  -0.1000
PARAM: GONIO= 0
PARAM: DM=   3.35500, DA=   3.35400, KFIX=   1.39983
PARAM: SM= -1, SS=  1, SA= -1, FX=  2
PARAM: ALF1= 120.00, ALF2= 120.00, ALF3= 120.00, ALF4= 120.00
PARAM: BET1= 120.00, BET2= 120.00, BET3= 120.00, BET4= 120.00
PARAM: ETAM=  35.00, ETAA=  35.00
PARAM: AS=   5.38000, BS=   5.38000, CS=   7.10000
PARAM: AA=  90.00000, BB=  90.00000, CC= 120.00000, ETAS=   1.00000
PARAM: AX=  1.000, AY=  1.000, AZ=  0.000
PARAM: BX=  0.000, BY=  0.000, BZ=  1.000
VARIA: SELPOS=in
VARIA: SELSPEED=  13805
VARIA: A1      = -41.96, A2      = -83.96, A3      =   8.00, A4      =  32.95
VARIA: A5      = -41.98, A6      = -84.00, GU      =-133.12, GL      =  40.20
VARIA: A3P     =  86.91, GA      =   2.98, GM      =   0.01, RA      =  21.24
VARIA: RMV     =  32.00, RMH     =  63.26, TA      =   4.60, TM      =  -3.98
VARIA: GC      =  -0.01, DIA1X   =  62.45, DIA2X   =  87.99, DIA2Z   = 162.18
VARIA: I1      =   0.00, I2      =   0.00, I3      =   0.00, I4      =   0.00
VARIA: I5      =   0.00, I6      =   0.00, I7      =   0.00, I8      =   0.00
VARIA: IH1     =   0.00, IH2     =   0.00
ZEROS: A1      =  -2.01, A2      =  -0.24, A3      =-180.00, A4      =  -0.22
ZEROS: A5      = -89.43, A6      =   0.17, GU      =   0.00, GL      =   0.00
ZEROS: A3P     =  21.83, GA      =   0.00, GM      =   0.00, RA      =   0.00
ZEROS: RMV     =   0.00, RMH     =   0.00, TA      =   0.00, TM      =   0.00
ZEROS: GC      =   0.00, DIA1X   =   0.00, DIA2X   =   0.00, DIA2Z   =   0.00
PARAM: TI=      1.00
PARAM: TT=      0.05, RT=      0.05, MAG=      0.00
PARAM: REACTOR=43.38
FORMT:
DATA_:
  PNT       MAG        M1      TIME      CNTS         A2         A3        A3P         A4         KI         KF        RMH         RA         TT        TRT        MAG 
   1       0.0000     7730     1.00     13353      -83.955      8.000     86.910     32.950      1.400      1.400     63.260     21.240      0.053      0.053      0.000 
   2      -0.0999     7715     1.00     13155      -83.955      8.000     86.910     32.950      1.400      1.400     63.260     21.240      0.112      0.112     -0.100 
   3      -0.1999     7656     1.00     13283      -83.955      8.000     86.910     32.950      1.400      1.400     63.260     21.240      0.071      0.071     -0.200 
   4      -0.2999     7576     1.00     13027      -83.955      8.000     86.910     32.950      1.400      1.400     63.260     21.240      0.074      0.074     -0.300 
   5      -0.3999     7734     1.00     12803      -83.955      8.000     86.910     32.950      1.400      1.400     63.260     21.240      0.074      0.074     -0.400 
   6      -0.5000     7633     1.00     12791      -83.955      8.000     86.910     32.940      1.400      1.400     63.260     21.240      0.075      0.075     -0.500 
   7      -0.6000     7729     1.00     12417      -83.955      8.000     86.910     32.940      1.400      1.400     63.260     21.240      0.075      0.075     -0.600 
   8      -0.7000     7828     1.00     12027      -83.955      8.000     86.910     32.940      1.400      1.400     63.260     21.240      0.075      0.075     -0.700 
   9      -0.8000     7822     1.00     11767      -83.955      8.000     86.910     32.940      1.400      1.400     63.260     21.240      0.073      0.073     -0.800 
  10      -0.9000     7630     1.00     11563      -83.955      8.000     86.910     32.940      1.400      1.400     63.260     21.240      0.076      0.076     -0.900 
  11      -1.0000     7660     1.00     11384      -83.955      8.000     86.910     32.940      1.400      1.400     63.260     21.240      0.076      0.076     -1.000 
  12      -1.0999     7747     1.00     11210      -83.955      8.000     86.910     32.940      1.400      1.400     63.260     21.240      0.077      0.077     -1.100 
  13      -1.1999     7652     1.00     10937      -83.955      8.000     86.910     32.940      1.400      1.400     63.260     21.240      0.077      0.077     -1.200 
  14      -1.2999     7925     1.00     10277      -83.955      8.000     86.910     32.940      1.400      1.400     63.260     21.240      0.077      0.077     -1.300 
  15      -1.3999     7538     1.00      9911      -83.955      8.000     86.910     32.940      1.400      1.400     63.260     21.240      0.077      0.077     -1.400 
  16      -1.5000     7571     1.00      9396      -83.955      8.000     86.910     32.940      1.400      1.400     63.260     21.240      0.078      0.078     -1.500 
  17      -1.6000     7624     1.00      7642      -83.955      8.000     86.910     32.940      1.400      1.400     63.260     21.240      0.077      0.077     -1.600 
  18      -1.7000     7593     1.00      6128      -83.955      8.000     86.910     32.940      1.400      1.400     63.260     21.240      0.078      0.078     -1.700 
  19      -1.8000     7649     1.00      5479      -83.955      8.000     86.910     32.940      1.400      1.400     63.260     21.240      0.078      0.078     -1.800 
  20      -1.9000     7595     1.00      5283      -83.955      8.000     86.910     32.940      1.400      1.400     63.260     21.240      0.078      0.078     -1.900 
  21      -2.0000     7802     1.00      4989      -83.955      8.000     86.910     32.940      1.400      1.400     63.260     21.240      0.078      0.078     -2.000 
  22      -2.0999     7626     1.00      5198      -83.955      8.000     86.910     32.940      1.400      1.400     63.260     21.240      0.077      0.077     -2.100 
  23      -2.1999     7829     1.00      5540      -83.955      8.000     86.910     32.940      1.400      1.400     63.260     21.240      0.077      0.077     -2.200 
  24      -2.2999     7838     1.00      5676      -83.955      8.000     86.910     32.940      1.400      1.400     63.260     21.240      0.077      0.077     -2.300 
  25      -2.3999     7533     1.00      5748      -83.955      8.000     86.910     32.940      1.400      1.400     63.260     21.240      0.078      0.078     -2.400 
  26      -2.5000     7747     1.00      5918      -83.955      8.000     86.910     32.940      1.400      1.400     63.260     21.240      0.077      0.077     -2.500 
  27      -2.6000     7695     1.00      5668      -83.955      8.000     86.910     32.940      1.400      1.400     63.260     21.240      0.077      0.077     -2.600 
  28      -2.7000     7843     1.00      5720      -83.955      8.000     86.910     32.940      1.400      1.400     63.260     21.240      0.077      0.077     -2.700 
  29      -2.8000     7673     1.00      5807      -83.955      8.000     86.910     32.940      1.400      1.400     63.260     21.240      0.077      0.077     -2.800 
  30      -2.9000     7618     1.00      5588      -83.955      8.000     86.910     32.940      1.400      1.400     63.260     21.240      0.077      0.077     -2.900 
  31      -3.0000     7746     1.00      5549      -83.955      8.000     86.910     32.940      1.400      1.400     63.260     21.240      0.077      0.077     -3.000 
  32      -3.0999     7763     1.00      5678      -83.955      8.000     86.910     32.940      1.400      1.400     63.260     21.240      0.077      0.077     -3.100 
  33      -3.1999     7724     1.00      5492      -83.955      8.000     86.910     32.940      1.400      1.400     63.260     21.240      0.077      0.077     -3.200 
  34      -3.2999     7743     1.00      5385      -83.955      8.000     86.910     32.940      1.400      1.400     63.260     21.240      0.077      0.077     -3.300 
  35      -3.3999     7645     1.00      5331      -83.955      8.000     86.910     32.940      1.400      1.400     63.260     21.240      0.077      0.077     -3.400 
  36      -3.5000     7844     1.00      5168      -83.955      8.000     86.910     32.940      1.400      1.400     63.260     21.240      0.077      0.077     -3.500 
  37      -3.6000     7559     1.00      5066      -83.955      8.000     86.910     32.940      1.400      1.400     63.260     21.240      0.076      0.076     -3.600 
  38      -3.7000     7748     1.00      4985      -83.955      8.000     86.910     32.940      1.400      1.400     63.260     21.240      0.076      0.076     -3.700 
  39      -3.8000     7694     1.00      4887      -83.955      8.000     86.910     32.940      1.400      1.400     63.260     21.240      0.077      0.077     -3.800 
  40      -3.9000     7655     1.00      4653      -83.955      8.000     86.910     32.940      1.400      1.400     63.260     21.240      0.077      0.077     -3.900 
  41      -4.0000     7706     1.00      4555      -83.955      8.000     86.910     32.940      1.400      1.400     63.260     21.240      0.076      0.076     -4.000 
  42      -4.0999     7795     1.00      4395      -83.955      8.000     86.910     32.940      1.400      1.400     63.260     21.240      0.077      0.077     -4.100 
  43      -4.1999     7765     1.00      4212      -83.955      8.000     86.910     32.940      1.400      1.400     63.260     21.240      0.077      0.077     -4.200 
  44      -4.2999     7784     1.00      4008      -83.955      8.000     86.910     32.940      1.400      1.400     63.260     21.240      0.077      0.077     -4.300 
  45      -4.3999     7517     1.00      3815      -83.955      8.000     86.910     32.940      1.400      1.400     63.260     21.240      0.077      0.077     -4.400 
  46      -4.5000     7621     1.00      3454      -83.955      8.000     86.910     32.940      1.400      1.400     63.260     21.240      0.076      0.076     -4.500 
  47      -4.6000     7595     1.00      3190      -83.955      8.000     86.910     32.940      1.400      1.400     63.260     21.240      0.076      0.076     -4.600 
  48      -4.7000     7645     1.00      2975      -83.955      8.000     86.910     32.940      1.400      1.400     63.260     21.240      0.077      0.077     -4.700 
  49      -4.8000     7603     1.00      2687      -83.955      8.000     86.910     32.940      1.400      1.400     63.260     21.240      0.077      0.077     -4.800 
  50      -4.9000     7662     1.00      2353      -83.955      8.000     86.910     32.940      1.400      1.400     63.260     21.240      0.076      0.076     -4.900 
  51      -5.0000     7786     1.00      2160      -83.955      8.000     86.910     32.940      1.400      1.400     63.260     21.240      0.077      0.077     -5.000 
  52      -5.0999     7810     1.00      1968      -83.955      8.000     86.910     32.940      1.400      1.400     63.260     21.240      0.077      0.077     -5.100 
  53      -5.1999     7646     1.00      1702      -83.955      8.000     86.910     32.940      1.400      1.400     63.260     21.240      0.077      0.077     -5.200 
  54      -5.2999     7753     1.00      1567      -83.955      8.000     86.910     32.940      1.400      1.400     63.260     21.240      0.077      0.077     -5.300 
  55      -5.3999     7749     1.00      1450      -83.955      8.000     86.910     32.940      1.400      1.400     63.260     21.240      0.077      0.077     -5.400 
  56      -5.5000     7702     1.00      1211      -83.955      8.000     86.910     32.940      1.400      1.400     63.260     21.240      0.076      0.076     -5.500 
  57      -5.6000     7504     1.00      1211      -83.955      8.000     86.910     32.940      1.400      1.400     63.260     21.240      0.077      0.077     -5.600 
  58      -5.7000     7763     1.00      1015      -83.955      8.000     86.910     32.940      1.400      1.400     63.260     21.240      0.077      0.077     -5.700 
  59      -5.8000     7747     1.00       926      -83.955      8.000     86.910     32.940      1.400      1.400     63.260     21.240      0.077      0.077     -5.800 
  60      -5.9000     7630     1.00       715      -83.955      8.000     86.910     32.940      1.400      1.400     63.260     21.240      0.077      0.077     -5.900 
  61      -6.0000     7815     1.00       542      -83.955      8.000     86.910     32.940      1.400      1.400     63.260     21.240      0.076      0.076     -6.000 
  62      -6.0999     7633     1.00       453      -83.955      8.000     86.910     32.940      1.400      1.400     63.260     21.240      0.095      0.095     -6.100 
  63      -6.1999     7668     1.00       430      -83.955      8.000     86.910     32.940      1.400      1.400     63.260     21.240      0.077      0.077     -6.200 
  64      -6.2999     7750     1.00       445      -83.955      8.000     86.910     32.940      1.400      1.400     63.260     21.240      0.076      0.076     -6.300 
  65      -6.3999     7732     1.00       380      -83.955      8.000     86.910     32.940      1.400      1.400     63.260     21.240      0.076      0.076     -6.400 
  66      -6.5000     7553     1.00       387      -83.955      8.000     86.910     32.940      1.400      1.400     63.260     21.240      0.076      0.076     -6.500 
  67      -6.6000     7659     1.00       369      -83.955      8.000     86.910     32.940      1.400      1.400     63.260     21.240      0.078      0.078     -6.600 
  68      -6.7000     7571     1.00       363      -83.955      8.000     86.910     32.940      1.400      1.400     63.260     21.240      0.079      0.079     -6.700 
  69      -6.8000     7629     1.00       380      -83.955      8.000     86.910     32.940      1.400      1.400     63.260     21.240      0.080      0.080     -6.800 
  70      -6.9000     7859     1.00       362      -83.955      8.000     86.910     32.940      1.400      1.400     63.260     21.240      0.080      0.080     -6.900 
  71      -7.0000     7675     1.00       367      -83.955      8.000     86.910     32.940      1.400      1.400     63.260     21.240      0.082      0.082     -7.000 
  72      -7.0999     7712     1.00       390      -83.955      8.000     86.910     32.940      1.400      1.400     63.260     21.240      0.082      0.082     -7.100 
  73      -7.1999     7843     1.00       388      -83.955      8.000     86.910     32.940      1.400      1.400     63.260     21.240      0.081      0.081     -7.200 
  74      -7.2999     7567     1.00       379      -83.955      8.000     86.910     32.940      1.400      1.400     63.260     21.240      0.081      0.081     -7.300 
  75      -7.3999     7754     1.00       365      -83.955      8.000     86.910     32.940      1.400      1.400     63.260     21.240      0.080      0.080     -7.400 
  76      -7.5000     7679     1.00       372      -83.955      8.000     86.910     32.940      1.400      1.400     63.260     21.240      0.080      0.080     -7.500 
  77      -7.6000     7652     1.00       402      -83.955      8.000     86.910     32.940      1.400      1.400     63.260     21.240      0.079      0.079     -7.600 
  78      -7.7000     7687     1.00       371      -83.955      8.000     86.910     32.940      1.400      1.400     63.260     21.240      0.078      0.078     -7.700 
  79      -7.8000     7778     1.00       383      -83.955      8.000     86.910     32.940      1.400      1.400     63.260     21.240      0.078      0.078     -7.800 
  80      -7.9000     7811     1.00       406      -83.955      8.000     86.910     32.940      1.400      1.400     63.260     21.240      0.077      0.077     -7.900 
  81      -8.0000     7836     1.00       363      -83.955      8.000     86.910     32.940      1.400      1.400     63.260     21.240      0.077      0.077     -8.000 
  82      -8.0999     7702     1.00       353      -83.955      8.000     86.910     32.940      1.400      1.400     63.260     21.240      0.076      0.076     -8.100 
  83      -8.1999     7696     1.00       369      -83.955      8.000     86.910     32.940      1.400      1.400     63.260     21.240      0.076      0.076     -8.200 
  84      -8.2999     7529     1.00       350      -83.955      8.000     86.910     32.940      1.400      1.400     63.260     21.240      0.075      0.075     -8.300 
  85      -8.3999     7713     1.00       346      -83.955      8.000     86.910     32.940      1.400      1.400     63.260     21.240      0.075      0.075     -8.400 
  86      -8.5000     7785     1.00       375      -83.955      8.000     86.910     32.940      1.400      1.400     63.260     21.240      0.075      0.075     -8.500 
  87      -8.6000     7543     1.00       357      -83.955      8.000     86.910     32.940      1.400      1.400     63.260     21.240      0.074      0.074     -8.600 
  88      -8.7000     7694     1.00       362      -83.955      8.000     86.910     32.940      1.400      1.400     63.260     21.240      0.074      0.074     -8.700 
  89      -8.8000     7540     1.00       381      -83.955      8.000     86.910     32.940      1.400      1.400     63.260     21.240      0.074      0.074     -8.800 
  90      -8.9000     7693     1.00       386      -83.955      8.000     86.910     32.940      1.400      1.400     63.260     21.240      0.073      0.073     -8.900 
  91      -9.0000     7773     1.00       361      -83.955      8.000     86.910     32.940      1.400      1.400     63.260     21.240      0.072      0.072     -9.000 
  92      -9.0999     7545     1.00       366      -83.955      8.000     86.910     32.940      1.400      1.400     63.260     21.240      0.072      0.072     -9.100 
  93      -9.1999     7768     1.00       371      -83.955      8.000     86.910     32.940      1.400      1.400     63.260     21.240      0.071      0.071     -9.200 
  94      -9.2999     7711     1.00       387      -83.955      8.000     86.910     32.940      1.400      1.400     63.260     21.240      0.070      0.070     -9.300 
  95      -9.3999     7626     1.00       379      -83.955      8.000     86.910     32.940      1.400      1.400     63.260     21.240      0.070      0.070     -9.400 
  96      -9.5000     7722     1.00       364      -83.955      8.000     86.910     32.940      1.400      1.400     63.260     21.240      0.070      0.070     -9.500 
  97      -9.6000     7703     1.00       346      -83.955      8.000     86.910     32.940      1.400      1.400     63.260     21.240      0.069      0.069     -9.600 
  98      -9.7000     7729     1.00       382      -83.955      8.000     86.910     32.940      1.400      1.400     63.260     21.240      0.069      0.069     -9.700 
  99      -9.8000     7702     1.00       397      -83.955      8.000     86.910     32.940      1.400      1.400     63.260     21.240      0.069      0.069     -9.800 
 100      -9.9000     7870     1.00       370      -83.955      8.000     86.910     32.940      1.400      1.400     63.260     21.240      0.069      0.069     -9.900 
 101     -10.0000     7565     1.00       363      -83.955      8.000     86.910     32.940      1.400      1.400     63.260     21.240      0.069      0.069    -10.000 
